# $Id: marstb.tab,v 1.0 2008/04/17
#
# Table of brightness temperatures at 43, 115, 230, 345 GHz
# every 25 days from 1999 to 2014 from Caltech thermal model, M.Gurwell
# This table will be used by services::Planet::brightnessTemperature(Frequency)
# to give a estimate of Tb for Mars which is better than simply
# power-law with frequency.
#
# Note that column names *MUST* be TBNN(N) where NN(N) is
# the frequency in GHz.  The interpolation code strips
# of "TB" to discover the frequency.
#
#|  MJD    |  TB43   |  TB115  |  TB230  |  TB345  
#|   r     |    r    |    r    |    r    |    r    
#|  days   |    K    |    K    |    K    |    K    
   51391.0   192.701   195.434   199.419   201.979
   51416.0   192.810   195.663   199.781   202.410
   51441.0   193.888   197.069   201.426   204.164
   51466.0   195.664   199.169   203.730   206.544
   51491.0   198.179   201.967   206.646   209.484
   51516.0   201.626   205.915   210.836   213.753
   51541.0   205.716   210.562   215.741   218.735
   51566.0   208.261   213.420   218.803   221.868
   51591.0   207.531   213.126   218.857   222.061
   51616.0   205.289   211.435   217.579   220.959
   51641.0   202.219   208.847   215.345   218.868
   51666.0   199.130   206.138   212.872   216.487
   51691.0   196.668   203.937   210.775   214.418
   51716.0   194.788   202.188   208.996   212.595
   51741.0   193.662   201.223   207.962   211.482
   51766.0   192.970   200.497   207.032   210.407
   51791.0   193.277   200.931   207.320   210.571
   51816.0   194.254   202.082   208.341   211.464
   51841.0   195.518   203.481   209.607   212.607
   51866.0   197.119   205.113   211.099   213.989
   51891.0   198.416   206.473   212.384   215.195
   51916.0   198.708   206.850   212.742   215.517
   51941.0   197.922   206.192   212.137   214.912
   51966.0   197.366   205.900   212.002   214.834
   51991.0   197.219   206.073   212.412   215.358
   52016.0   197.811   207.060   213.789   216.941
   52041.0   199.344   209.063   216.407   219.931
   52066.0   200.927   210.593   218.472   222.424
   52091.0   198.899   206.476   213.546   217.353
   52116.0   196.404   201.617   207.315   210.612
   52141.0   194.826   198.517   203.224   206.106
   52166.0   195.283   198.048   202.099   204.689
   52191.0   197.116   199.503   203.233   205.668
   52216.0   200.087   202.577   206.292   208.691
   52241.0   203.882   206.476   210.185   212.563
   52266.0   204.666   207.404   211.279   213.730
   52291.0   203.684   206.914   211.181   213.797
   52316.0   201.346   205.184   209.928   212.755
   52341.0   198.272   202.706   207.901   210.924
   52366.0   195.532   200.526   206.110   209.300
   52391.0   193.456   198.891   204.730   208.016
   52416.0   191.957   197.764   203.753   207.086
   52441.0   191.166   197.281   203.347   206.680
   52466.0   191.014   197.393   203.480   206.779
   52491.0   191.721   198.501   204.647   207.920
   52516.0   193.071   200.256   206.460   209.693
   52541.0   194.929   202.453   208.690   211.877
   52566.0   197.065   204.848   211.099   214.240
   52591.0   198.983   207.074   213.380   216.496
   52616.0   199.197   207.540   213.917   217.015
   52641.0   198.696   207.313   213.768   216.860
   52666.0   198.013   206.889   213.405   216.479
   52691.0   197.429   206.476   212.977   216.006
   52716.0   197.144   206.255   212.658   215.596
   52741.0   198.301   207.660   214.026   216.899
   52766.0   199.872   209.307   215.561   218.340
   52791.0   202.510   212.127   218.380   221.133
   52816.0   206.032   216.293   222.971   225.910
   52841.0   208.569   219.253   226.559   229.868
   52866.0   209.439   219.914   227.836   231.646
   52891.0   207.827   216.392   223.780   227.615
   52916.0   206.222   211.877   217.602   220.827
   52941.0   205.304   208.793   213.158   215.815
   52966.0   203.551   206.020   209.753   212.141
   52991.0   201.165   203.384   207.005   209.350
   53016.0   198.031   200.407   204.204   206.629
   53041.0   194.661   197.395   201.489   204.052
   53066.0   191.934   195.112   199.531   202.239
   53091.0   190.003   193.619   198.317   201.145
   53116.0   188.796   192.854   197.781   200.698
   53141.0   188.292   192.707   197.788   200.752
   53166.0   188.656   193.543   198.811   201.827
   53191.0   189.699   195.116   200.582   203.647
   53216.0   191.286   197.262   202.935   206.045
   53241.0   193.742   200.213   206.075   209.228
   53266.0   196.531   203.544   209.639   212.843
   53291.0   198.579   206.131   212.473   215.745
   53316.0   199.110   207.165   213.761   217.098
   53341.0   199.161   207.773   214.635   218.044
   53366.0   198.912   207.992   215.041   218.486
   53391.0   198.568   207.969   215.084   218.497
   53416.0   198.656   208.291   215.355   218.684
   53441.0   199.956   209.881   216.856   220.063
   53466.0   200.817   210.487   217.042   219.995
   53491.0   204.108   213.886   220.155   222.894
   53516.0   207.106   217.009   223.078   225.653
   53541.0   210.063   219.421   225.014   227.358
   53566.0   212.727   222.131   227.734   230.075
   53591.0   214.092   223.837   229.802   232.329
   53616.0   213.451   223.322   229.750   232.575
   53641.0   211.338   221.482   228.672   231.977
   53666.0   209.147   218.996   226.768   230.558
   53691.0   204.717   212.383   219.415   223.119
   53716.0   198.737   203.702   209.226   212.379
   53741.0   193.673   197.070   201.623   204.384
   53766.0   190.038   192.787   196.919   199.503
   53791.0   187.493   190.100   194.112   196.643
   53816.0   186.145   188.860   192.892   195.430
   53841.0   185.761   188.715   192.846   195.415
   53866.0   186.241   189.604   193.910   196.537
   53891.0   187.517   191.389   195.926   198.634
   53916.0   189.485   193.910   198.704   201.496
   53941.0   192.222   197.217   202.301   205.196
   53966.0   195.452   201.136   206.586   209.613
   53991.0   197.240   203.611   209.478   212.662
   54016.0   198.236   205.366   211.697   215.054
   54041.0   198.793   206.723   213.528   217.057
   54066.0   199.045   207.712   214.929   218.597
   54091.0   199.158   208.418   215.901   219.640
   54116.0   200.055   209.918   217.608   221.370
   54141.0   200.982   211.119   218.758   222.415
   54166.0   202.764   213.064   220.502   223.981
   54191.0   205.509   216.093   223.365   226.669
   54216.0   208.341   218.698   225.530   228.564
   54241.0   211.569   221.667   228.123   230.943
   54266.0   214.273   224.448   230.844   233.604
   54291.0   214.741   224.704   231.023   233.760
   54316.0   211.850   221.445   227.719   230.472
   54341.0   207.761   217.153   223.473   226.286
   54366.0   204.162   213.403   219.797   222.686
   54391.0   201.466   210.610   217.147   220.161
   54416.0   199.928   209.143   216.053   219.328
   54441.0   198.279   207.146   214.402   218.007
   54466.0   194.478   201.560   208.238   211.796
   54491.0   189.563   194.276   199.608   202.681
   54516.0   186.178   189.338   193.642   196.286
   54541.0   184.818   187.361   191.180   193.610
   54566.0   184.823   187.252   190.912   193.265
   54591.0   185.771   188.389   192.085   194.438
   54616.0   187.871   190.808   194.654   197.065
   54641.0   190.821   194.268   198.393   200.910
   54666.0   193.697   197.766   202.272   204.948
   54691.0   195.471   200.241   205.221   208.097
   54716.0   196.727   202.361   207.923   211.044
   54741.0   197.563   204.125   210.316   213.695
   54766.0   198.112   205.595   212.380   216.001
   54791.0   198.794   207.161   214.474   218.293
   54816.0   200.134   209.365   217.128   221.090
   54841.0   201.155   210.820   218.700   222.652
   54866.0   203.687   213.947   221.938   225.850
   54891.0   206.027   216.765   224.780   228.603
   54916.0   208.976   219.498   227.098   230.663
   54941.0   212.468   223.117   230.568   234.000
   54966.0   215.371   226.248   233.695   237.080
   54991.0   215.522   226.034   233.285   236.590
   55016.0   211.838   221.975   229.113   232.383
   55041.0   207.545   217.380   224.393   227.624
   55066.0   203.426   212.877   219.675   222.822
   55091.0   199.990   209.009   215.519   218.541
   55116.0   197.742   206.447   212.716   215.628
   55141.0   196.094   204.424   210.467   213.288
   55166.0   195.507   203.795   209.893   212.769
   55191.0   194.851   203.071   209.447   212.544
   55216.0   193.099   200.688   207.199   210.544
   55241.0   189.792   195.537   201.243   204.404
   55266.0   187.117   190.922   195.435   198.136
   55291.0   186.466   189.167   192.897   195.262
   55316.0   187.617   189.882   193.268   195.477
   55341.0   190.116   192.438   195.808   198.010
   55366.0   192.107   194.725   198.299   200.591
   55391.0   193.725   196.887   200.850   203.317
   55416.0   194.976   198.886   203.399   206.110
   55441.0   195.828   200.627   205.793   208.796
   55466.0   196.455   202.201   208.047   211.349
   55491.0   197.393   204.148   210.679   214.272
   55516.0   198.541   206.139   213.197   216.999
   55541.0   200.325   208.675   216.123   220.049
   55566.0   202.587   211.714   219.499   223.506
   55591.0   204.965   214.459   222.254   226.181
   55616.0   208.350   218.114   225.866   229.705
   55641.0   212.207   222.510   230.380   234.199
   55666.0   215.270   225.718   233.554   237.322
   55691.0   214.529   224.745   232.489   236.207
   55716.0   211.100   221.198   228.916   232.617
   55741.0   207.055   216.974   224.593   228.249
   55766.0   203.037   212.626   220.006   223.551
   55791.0   199.767   209.008   216.075   219.462
   55816.0   197.250   206.054   212.713   215.895
   55841.0   195.592   203.963   210.198   213.156
   55866.0   194.973   203.067   208.968   211.741
   55891.0   194.547   202.260   207.853   210.472
   55916.0   194.964   202.712   208.301   210.921
   55941.0   195.382   203.317   209.171   211.958
   55966.0   195.167   203.114   209.368   212.466
   55991.0   193.995   200.839   206.909   210.123
   56016.0   192.437   197.183   202.143   204.998
   56041.0   191.897   195.009   198.918   201.354
   56066.0   192.109   194.433   197.822   200.040
   56091.0   192.852   195.066   198.403   200.606
   56116.0   193.572   196.097   199.699   202.030
   56141.0   194.028   197.133   201.203   203.759
   56166.0   194.434   198.305   202.978   205.813
   56191.0   195.191   199.925   205.248   208.378
   56216.0   196.213   201.699   207.552   210.912
   56241.0   198.255   204.557   210.908   214.465
   56266.0   200.326   207.367   214.120   217.811
   56291.0   203.093   210.487   217.328   221.002
   56316.0   206.563   214.518   221.547   225.247
   56341.0   210.655   219.316   226.621   230.381
   56366.0   213.483   222.320   229.674   233.421
   56391.0   211.956   220.861   228.322   232.103
   56416.0   208.963   218.047   225.655   229.488
   56441.0   205.328   214.484   222.141   225.982
   56466.0   201.741   210.820   218.369   222.149
   56491.0   198.902   207.850   215.210   218.874
   56516.0   196.568   205.210   212.220   215.696
   56541.0   195.208   203.641   210.313   213.586
   56566.0   194.461   202.583   208.850   211.892
   56591.0   194.450   202.321   208.231   211.063
   56616.0   195.130   202.942   208.614   211.291
   56641.0   195.977   203.763   209.292   211.874
   56666.0   196.867   204.666   210.189   212.760
   56691.0   197.719   205.654   211.375   214.064
   56716.0   198.605   206.798   212.962   215.934
   56741.0   198.487   206.526   213.087   216.402
   56766.0   197.195   203.747   209.818   213.108
   56791.0   195.333   199.742   204.593   207.448
   56816.0   194.108   197.164   201.169   203.686
   56841.0   193.412   195.992   199.732   202.152
   56866.0   192.999   195.653   199.533   202.030
   56891.0   192.988   195.988   200.180   202.832
   56916.0   193.824   197.312   201.873   204.696
   56941.0   195.363   199.417   204.356   207.342
   56966.0   197.480   201.956   207.127   210.190
   56991.0   200.452   205.321   210.678   213.793
   57016.0   204.100   209.637   215.304   218.509
